Number of Samples	Sampling Rate (Hz)
1024.000000	22000.000000

Time (s)	Time History Channel 0	Frequency (Hz)	Power Spectrum Channel 0
0.000000	3.925967	0.000000	2.317619
0.000045	3.843054	21.484375	0.232102
0.000091	3.801597	42.968750	0.266741
0.000136	3.760140	64.453125	0.356037
0.000182	3.718683	85.937500	0.840189
0.000227	3.656499	107.421875	1.415211
0.000273	3.552857	128.906250	0.317902
0.000318	3.511400	150.390625	0.164645
0.000364	3.387031	171.875000	0.129708
0.000409	3.304117	193.359375	0.089781
0.000455	3.221204	214.843750	0.076151
0.000500	3.179748	236.328125	0.045406
0.000545	3.117562	257.812500	0.039450
0.000591	3.055377	279.296875	0.018522
0.000636	3.013921	300.781250	0.059439
0.000682	2.951735	322.265625	0.024525
0.000727	2.889551	343.750000	0.028601
0.000773	2.848094	365.234375	0.032986
0.000818	2.765181	386.718750	0.016147
0.000864	2.682268	408.203125	0.011495
0.000909	2.599355	429.687500	0.003502
0.000955	2.516441	451.171875	0.008664
0.001000	2.433528	472.656250	0.010744
0.001045	2.350615	494.140625	0.008031
0.001091	2.329886	515.625000	0.017625
0.001136	2.267701	537.109375	0.010614
0.001182	2.184788	558.593750	0.006224
0.001227	2.101874	580.078125	0.008036
0.001273	1.998233	601.562500	0.016685
0.001318	1.894591	623.046875	0.013699
0.001364	1.853135	644.531250	0.010047
0.001409	1.770222	666.015625	0.011174
0.001455	1.687308	687.500000	0.018461
0.001500	1.645852	708.984375	0.003504
0.001545	1.583667	730.468750	0.003005
0.001591	1.521482	751.953125	0.004510
0.001636	1.438569	773.437500	0.007205
0.001682	1.376384	794.921875	0.009736
0.001727	1.314198	816.406250	0.000469
0.001773	1.272742	837.890625	0.008011
0.001818	1.189829	859.375000	0.006585
0.001864	1.127644	880.859375	0.006736
0.001909	1.044730	902.343750	0.011775
0.001955	0.982546	923.828125	0.005105
0.002000	0.941089	945.312500	0.004205
0.002045	0.858175	966.796875	0.003123
0.002091	0.795991	988.281250	0.004791
0.002136	0.713078	1009.765625	0.005616
0.002182	0.671621	1031.250000	0.006818
0.002227	0.630164	1052.734375	0.001225
0.002273	0.630164	1074.218750	0.002535
0.002318	0.630164	1095.703125	0.001592
0.002364	0.609436	1117.187500	0.007364
0.002409	0.547251	1138.671875	0.002378
0.002455	0.505795	1160.156250	0.005883
0.002500	0.422881	1181.640625	0.006847
0.002545	0.360696	1203.125000	0.005770
0.002591	0.298512	1224.609375	0.001138
0.002636	0.215598	1246.093750	0.001822
0.002682	0.194870	1267.578125	0.005049
0.002727	0.194870	1289.062500	0.003773
0.002773	0.174141	1310.546875	0.011604
0.002818	0.132685	1332.031250	0.005675
0.002864	0.111957	1353.515625	0.002364
0.002909	0.091228	1375.000000	0.003952
0.002955	0.070499	1396.484375	0.002328
0.003000	0.049771	1417.968750	0.008909
0.003045	0.049771	1439.453125	0.014107
0.003091	0.049771	1460.937500	0.007490
0.003136	0.049771	1482.421875	0.002565
0.003182	0.049771	1503.906250	0.002807
0.003227	0.049771	1525.390625	0.010379
0.003273	0.029043	1546.875000	0.009279
0.003318	0.049771	1568.359375	0.006825
0.003364	0.049771	1589.843750	0.011159
0.003409	0.049771	1611.328125	0.007052
0.003455	0.049771	1632.812500	0.006236
0.003500	0.029043	1654.296875	0.007648
0.003545	0.029043	1675.781250	0.002189
0.003591	0.008315	1697.265625	0.001248
0.003636	0.029043	1718.750000	0.003502
0.003682	0.049771	1740.234375	0.015720
0.003727	0.049771	1761.718750	0.012148
0.003773	0.049771	1783.203125	0.008721
0.003818	0.049771	1804.687500	0.001687
0.003864	0.049771	1826.171875	0.009732
0.003909	0.049771	1847.656250	0.016155
0.003955	0.029043	1869.140625	0.011029
0.004000	0.029043	1890.625000	0.005204
0.004045	0.049771	1912.109375	0.003496
0.004091	0.029043	1933.593750	0.006820
0.004136	0.049771	1955.078125	0.010016
0.004182	0.049771	1976.562500	0.002136
0.004227	0.049771	1998.046875	0.006382
0.004273	0.049771	2019.531250	0.004370
0.004318	0.215598	2041.015625	0.012128
0.004364	0.298512	2062.500000	0.008356
0.004409	0.339968	2083.984375	0.004919
0.004455	0.381424	2105.468750	0.002428
0.004500	0.422881	2126.953125	0.003533
0.004545	0.443609	2148.437500	0.012657
0.004591	0.505795	2169.921875	0.004746
0.004636	0.526523	2191.406250	0.005389
0.004682	0.547251	2212.890625	0.006602
0.004727	0.630164	2234.375000	0.005176
0.004773	0.671621	2255.859375	0.002454
0.004818	0.713078	2277.343750	0.008550
0.004864	0.795991	2298.828125	0.004492
0.004909	0.858175	2320.312500	0.002961
0.004955	0.941089	2341.796875	0.004562
0.005000	1.024002	2363.281250	0.009198
0.005045	1.065459	2384.765625	0.003439
0.005091	1.106915	2406.250000	0.004348
0.005136	1.169101	2427.734375	0.001975
0.005182	1.231285	2449.218750	0.002161
0.005227	1.314198	2470.703125	0.004277
0.005273	1.355656	2492.187500	0.003116
0.005318	1.438569	2513.671875	0.006630
0.005364	1.521482	2535.156250	0.002907
0.005409	1.583667	2556.640625	0.004100
0.005455	1.645852	2578.125000	0.003496
0.005500	1.708036	2599.609375	0.003201
0.005545	1.770222	2621.093750	0.000887
0.005591	1.853135	2642.578125	0.003599
0.005636	1.936049	2664.062500	0.002314
0.005682	2.018962	2685.546875	0.002022
0.005727	2.101874	2707.031250	0.002655
0.005773	2.184788	2728.515625	0.002326
0.005818	2.267701	2750.000000	0.002684
0.005864	2.350615	2771.484375	0.001992
0.005909	2.392071	2792.968750	0.003461
0.005955	2.454256	2814.453125	0.001430
0.006000	2.516441	2835.937500	0.004464
0.006045	2.599355	2857.421875	0.002024
0.006091	2.682268	2878.906250	0.000940
0.006136	2.785910	2900.390625	0.003629
0.006182	2.868822	2921.875000	0.003657
0.006227	2.951735	2943.359375	0.006809
0.006273	3.034649	2964.843750	0.005564
0.006318	3.096834	2986.328125	0.001818
0.006364	3.159019	3007.812500	0.002707
0.006409	3.200476	3029.296875	0.002102
0.006455	3.283389	3050.781250	0.003398
0.006500	3.324845	3072.265625	0.001508
0.006545	3.366302	3093.750000	0.002748
0.006591	3.304117	3115.234375	0.002753
0.006636	3.262661	3136.718750	0.000845
0.006682	3.366302	3158.203125	0.002195
0.006727	3.428487	3179.687500	0.001623
0.006773	3.635771	3201.171875	0.002525
0.006818	3.656499	3222.656250	0.001421
0.006864	3.697955	3244.140625	0.000597
0.006909	3.822325	3265.625000	0.001307
0.006955	3.697955	3287.109375	0.000760
0.007000	3.822325	3308.593750	0.001098
0.007045	3.946695	3330.078125	0.000445
0.007091	3.884510	3351.562500	0.000264
0.007136	4.071065	3373.046875	0.002142
0.007182	4.195435	3394.531250	0.001729
0.007227	4.112521	3416.015625	0.001818
0.007273	4.153978	3437.500000	0.002703
0.007318	4.133250	3458.984375	0.001018
0.007364	4.029609	3480.468750	0.002212
0.007409	4.029609	3501.953125	0.002567
0.007455	4.195435	3523.437500	0.001404
0.007500	4.319805	3544.921875	0.001079
0.007545	4.444175	3566.406250	0.001140
0.007591	4.692915	3587.890625	0.000846
0.007636	4.755099	3609.375000	0.001188
0.007682	4.755099	3630.859375	0.002708
0.007727	4.755099	3652.343750	0.004312
0.007773	4.734371	3673.828125	0.007287
0.007818	4.755099	3695.312500	0.000679
0.007864	4.589272	3716.796875	0.001594
0.007909	4.589272	3738.281250	0.001382
0.007955	4.485631	3759.765625	0.002649
0.008000	4.527088	3781.250000	0.001586
0.008045	4.713643	3802.734375	0.001339
0.008091	4.858741	3824.218750	0.002626
0.008136	4.900198	3845.703125	0.001524
0.008182	4.941654	3867.187500	0.004992
0.008227	4.941654	3888.671875	0.001446
0.008273	4.941654	3910.156250	0.000491
0.008318	4.941654	3931.640625	0.000153
0.008364	4.775827	3953.125000	0.003483
0.008409	4.610002	3974.609375	0.002800
0.008455	4.713643	3996.093750	0.003224
0.008500	4.838013	4017.578125	0.000935
0.008545	4.796556	4039.062500	0.000975
0.008591	4.941654	4060.546875	0.003412
0.008636	4.941654	4082.031250	0.001094
0.008682	4.941654	4103.515625	0.000230
0.008727	4.920926	4125.000000	0.001412
0.008773	4.941654	4146.484375	0.001307
0.008818	4.920926	4167.968750	0.001302
0.008864	4.941654	4189.453125	0.001166
0.008909	4.858741	4210.937500	0.000848
0.008955	4.775827	4232.421875	0.000830
0.009000	4.817285	4253.906250	0.002570
0.009045	4.775827	4275.390625	0.001253
0.009091	4.796556	4296.875000	0.001278
0.009136	4.775827	4318.359375	0.001826
0.009182	4.755099	4339.843750	0.002193
0.009227	4.734371	4361.328125	0.002384
0.009273	4.672186	4382.812500	0.001048
0.009318	4.672186	4404.296875	0.001200
0.009364	4.610002	4425.781250	0.001092
0.009409	4.589272	4447.265625	0.002544
0.009455	4.506360	4468.750000	0.001870
0.009500	4.506360	4490.234375	0.002781
0.009545	4.423447	4511.718750	0.000903
0.009591	4.423447	4533.203125	0.000811
0.009636	4.340533	4554.687500	0.004267
0.009682	4.319805	4576.171875	0.001090
0.009727	4.216164	4597.656250	0.000567
0.009773	4.236892	4619.140625	0.002184
0.009818	4.195435	4640.625000	0.000680
0.009864	4.153978	4662.109375	0.001669
0.009909	4.050337	4683.593750	0.000459
0.009955	4.029609	4705.078125	0.001040
0.010000	4.029609	4726.562500	0.001781
0.010045	4.008880	4748.046875	0.001277
0.010091	3.946695	4769.531250	0.002191
0.010136	3.863782	4791.015625	0.001486
0.010182	3.822325	4812.500000	0.001800
0.010227	3.739412	4833.984375	0.000849
0.010273	3.677227	4855.468750	0.001874
0.010318	3.594314	4876.953125	0.000761
0.010364	3.552857	4898.437500	0.000408
0.010409	3.449216	4919.921875	0.001464
0.010455	3.283389	4941.406250	0.000497
0.010500	3.262661	4962.890625	0.002076
0.010545	3.200476	4984.375000	0.000962
0.010591	3.179748	5005.859375	0.001200
0.010636	3.096834	5027.343750	0.001434
0.010682	3.055377	5048.828125	0.000689
0.010727	2.993193	5070.312500	0.000859
0.010773	2.951735	5091.796875	0.001169
0.010818	2.848094	5113.281250	0.001544
0.010864	2.806638	5134.765625	0.000841
0.010909	2.682268	5156.250000	0.001189
0.010955	2.557898	5177.734375	0.001498
0.011000	2.433528	5199.218750	0.001913
0.011045	2.392071	5220.703125	0.002021
0.011091	2.350615	5242.187500	0.002039
0.011136	2.309158	5263.671875	0.000087
0.011182	2.267701	5285.156250	0.001770
0.011227	2.205517	5306.640625	0.002944
0.011273	2.122603	5328.125000	0.000397
0.011318	2.039690	5349.609375	0.001919
0.011364	1.998233	5371.093750	0.001249
0.011409	1.894591	5392.578125	0.000896
0.011455	1.811678	5414.062500	0.000961
0.011500	1.708036	5435.546875	0.001229
0.011545	1.604395	5457.031250	0.001451
0.011591	1.562939	5478.515625	0.000808
0.011636	1.521482	5500.000000	0.004783
0.011682	1.459297	5521.484375	0.000822
0.011727	1.417840	5542.968750	0.000712
0.011773	1.355656	5564.453125	0.000883
0.011818	1.293470	5585.937500	0.001003
0.011864	1.210557	5607.421875	0.000592
0.011909	1.169101	5628.906250	0.000678
0.011955	1.065459	5650.390625	0.000600
0.012000	1.024002	5671.875000	0.001385
0.012045	0.982546	5693.359375	0.002104
0.012091	0.858175	5714.843750	0.000236
0.012136	0.775263	5736.328125	0.000250
0.012182	0.775263	5757.812500	0.002046
0.012227	0.754534	5779.296875	0.001687
0.012273	0.692349	5800.781250	0.001540
0.012318	0.671621	5822.265625	0.001079
0.012364	0.630164	5843.750000	0.000820
0.012409	0.547251	5865.234375	0.000747
0.012455	0.526523	5886.718750	0.001416
0.012500	0.464337	5908.203125	0.001341
0.012545	0.443609	5929.687500	0.000263
0.012591	0.298512	5951.171875	0.000716
0.012636	0.257054	5972.656250	0.000735
0.012682	0.298512	5994.140625	0.000920
0.012727	0.257054	6015.625000	0.002352
0.012773	0.236326	6037.109375	0.000494
0.012818	0.236326	6058.593750	0.000935
0.012864	0.215598	6080.078125	0.002245
0.012909	0.174141	6101.562500	0.000554
0.012955	0.111957	6123.046875	0.000780
0.013000	0.111957	6144.531250	0.001165
0.013045	0.049771	6166.015625	0.001242
0.013091	0.049771	6187.500000	0.002035
0.013136	0.049771	6208.984375	0.000843
0.013182	0.049771	6230.468750	0.001917
0.013227	0.049771	6251.953125	0.001081
0.013273	0.049771	6273.437500	0.001941
0.013318	0.049771	6294.921875	0.002490
0.013364	0.029043	6316.406250	0.001376
0.013409	0.049771	6337.890625	0.002152
0.013455	0.049771	6359.375000	0.001019
0.013500	0.049771	6380.859375	0.002901
0.013545	0.049771	6402.343750	0.001659
0.013591	0.049771	6423.828125	0.001652
0.013636	0.029043	6445.312500	0.001698
0.013682	0.049771	6466.796875	0.001500
0.013727	0.049771	6488.281250	0.001095
0.013773	0.029043	6509.765625	0.001714
0.013818	0.049771	6531.250000	0.002909
0.013864	0.029043	6552.734375	0.001384
0.013909	0.008315	6574.218750	0.001991
0.013955	0.029043	6595.703125	0.001554
0.014000	0.029043	6617.187500	0.001815
0.014045	0.049771	6638.671875	0.001349
0.014091	0.029043	6660.156250	0.001659
0.014136	0.049771	6681.640625	0.001063
0.014182	0.111957	6703.125000	0.001964
0.014227	0.153413	6724.609375	0.001970
0.014273	0.174141	6746.093750	0.003276
0.014318	0.215598	6767.578125	0.001496
0.014364	0.277782	6789.062500	0.000837
0.014409	0.319240	6810.546875	0.001364
0.014455	0.360696	6832.031250	0.000900
0.014500	0.443609	6853.515625	0.001891
0.014545	0.505795	6875.000000	0.001207
0.014591	0.547251	6896.484375	0.000312
0.014636	0.588708	6917.968750	0.001776
0.014682	0.630164	6939.453125	0.001313
0.014727	0.692349	6960.937500	0.001371
0.014773	0.671621	6982.421875	0.001966
0.014818	0.692349	7003.906250	0.001250
0.014864	0.775263	7025.390625	0.001618
0.014909	0.878904	7046.875000	0.001548
0.014955	0.941089	7068.359375	0.000600
0.015000	1.003274	7089.843750	0.001910
0.015045	1.065459	7111.328125	0.001445
0.015091	1.148372	7132.812500	0.001529
0.015136	1.210557	7154.296875	0.000543
0.015182	1.252014	7175.781250	0.000923
0.015227	1.334927	7197.265625	0.001196
0.015273	1.355656	7218.750000	0.002235
0.015318	1.417840	7240.234375	0.000586
0.015364	1.355656	7261.718750	0.001539
0.015409	1.438569	7283.203125	0.000282
0.015455	1.625123	7304.687500	0.001013
0.015500	1.770222	7326.171875	0.003448
0.015545	1.894591	7347.656250	0.001790
0.015591	2.018962	7369.140625	0.002073
0.015636	2.081146	7390.625000	0.000947
0.015682	2.143332	7412.109375	0.000426
0.015727	2.184788	7433.593750	0.001322
0.015773	2.164060	7455.078125	0.000532
0.015818	2.205517	7476.562500	0.000987
0.015864	2.267701	7498.046875	0.001035
0.015909	2.288429	7519.531250	0.000480
0.015955	2.350615	7541.015625	0.001717
0.016000	2.516441	7562.500000	0.001323
0.016045	2.640811	7583.984375	0.001513
0.016091	2.765181	7605.468750	0.002059
0.016136	2.868822	7626.953125	0.002156
0.016182	2.931007	7648.437500	0.001702
0.016227	2.972465	7669.921875	0.002374
0.016273	3.013921	7691.406250	0.000915
0.016318	3.096834	7712.890625	0.002249
0.016364	3.159019	7734.375000	0.000734
0.016409	3.179748	7755.859375	0.001228
0.016455	3.179748	7777.343750	0.002865
0.016500	3.324845	7798.828125	0.000573
0.016545	3.449216	7820.312500	0.002673
0.016591	3.532128	7841.796875	0.001303
0.016636	3.615042	7863.281250	0.000980
0.016682	3.697955	7884.765625	0.001787
0.016727	3.718683	7906.250000	0.000294
0.016773	3.801597	7927.734375	0.001165
0.016818	3.863782	7949.218750	0.000665
0.016864	3.905238	7970.703125	0.000758
0.016909	3.967423	7992.187500	0.000465
0.016955	3.988152	8013.671875	0.000072
0.017000	4.029609	8035.156250	0.000712
0.017045	4.091793	8056.640625	0.000315
0.017091	4.174706	8078.125000	0.001245
0.017136	4.236892	8099.609375	0.000935
0.017182	4.319805	8121.093750	0.001767
0.017227	4.340533	8142.578125	0.000628
0.017273	4.381989	8164.062500	0.001330
0.017318	4.423447	8185.546875	0.000973
0.017364	4.485631	8207.031250	0.000270
0.017409	4.527088	8228.515625	0.001512
0.017455	4.610002	8250.000000	0.000220
0.017500	4.672186	8271.484375	0.001817
0.017545	4.610002	8292.968750	0.000411
0.017591	4.651458	8314.453125	0.001261
0.017636	4.692915	8335.937500	0.001382
0.017682	4.713643	8357.421875	0.000519
0.017727	4.775827	8378.906250	0.001815
0.017773	4.817285	8400.390625	0.000421
0.017818	4.858741	8421.875000	0.000967
0.017864	4.858741	8443.359375	0.000967
0.017909	4.900198	8464.843750	0.000855
0.017955	4.920926	8486.328125	0.000853
0.018000	4.941654	8507.812500	0.001126
0.018045	4.920926	8529.296875	0.001696
0.018091	4.838013	8550.781250	0.001202
0.018136	4.920926	8572.265625	0.001230
0.018182	4.941654	8593.750000	0.000548
0.018227	4.941654	8615.234375	0.000696
0.018273	4.941654	8636.718750	0.001164
0.018318	4.962382	8658.203125	0.000633
0.018364	4.941654	8679.687500	0.001764
0.018409	4.941654	8701.171875	0.001304
0.018455	4.941654	8722.656250	0.000430
0.018500	4.941654	8744.140625	0.000665
0.018545	4.941654	8765.625000	0.000303
0.018591	4.962382	8787.109375	0.000898
0.018636	4.941654	8808.593750	0.000864
0.018682	4.941654	8830.078125	0.001012
0.018727	4.941654	8851.562500	0.001169
0.018773	4.941654	8873.046875	0.000957
0.018818	4.941654	8894.531250	0.000335
0.018864	4.941654	8916.015625	0.000897
0.018909	4.941654	8937.500000	0.001235
0.018955	4.941654	8958.984375	0.001294
0.019000	4.941654	8980.468750	0.001408
0.019045	4.962382	9001.953125	0.001555
0.019091	4.941654	9023.437500	0.000660
0.019136	4.941654	9044.921875	0.000683
0.019182	4.713643	9066.406250	0.000744
0.019227	4.692915	9087.890625	0.001850
0.019273	4.672186	9109.375000	0.000864
0.019318	4.672186	9130.859375	0.001185
0.019364	4.610002	9152.343750	0.001175
0.019409	4.630730	9173.828125	0.002174
0.019455	4.610002	9195.312500	0.000441
0.019500	4.568544	9216.796875	0.000987
0.019545	4.547816	9238.281250	0.000719
0.019591	4.485631	9259.765625	0.000996
0.019636	4.444175	9281.250000	0.000578
0.019682	4.340533	9302.734375	0.000753
0.019727	4.195435	9324.218750	0.001173
0.019773	4.195435	9345.703125	0.000454
0.019818	4.174706	9367.187500	0.000497
0.019864	4.112521	9388.671875	0.000870
0.019909	4.112521	9410.156250	0.000454
0.019955	4.050337	9431.640625	0.001359
0.020000	3.988152	9453.125000	0.001749
0.020045	3.925967	9474.609375	0.000938
0.020091	3.863782	9496.093750	0.000165
0.020136	3.843054	9517.578125	0.000110
0.020182	3.760140	9539.062500	0.000581
0.020227	3.677227	9560.546875	0.001268
0.020273	3.511400	9582.031250	0.000417
0.020318	3.469944	9603.515625	0.001113
0.020364	3.428487	9625.000000	0.000502
0.020409	3.366302	9646.484375	0.000898
0.020455	3.345573	9667.968750	0.000322
0.020500	3.283389	9689.453125	0.000583
0.020545	3.241932	9710.937500	0.000989
0.020591	3.179748	9732.421875	0.000361
0.020636	3.096834	9753.906250	0.000389
0.020682	3.034649	9775.390625	0.000904
0.020727	2.951735	9796.875000	0.000577
0.020773	2.868822	9818.359375	0.000425
0.020818	2.827366	9839.843750	0.000551
0.020864	2.661539	9861.328125	0.000452
0.020909	2.578626	9882.812500	0.001072
0.020955	2.537169	9904.296875	0.000536
0.021000	2.495713	9925.781250	0.000373
0.021045	2.433528	9947.265625	0.001609
0.021091	2.350615	9968.750000	0.000440
0.021136	2.288429	9990.234375	0.001809
0.021182	2.205517	10011.718750	0.000259
0.021227	2.164060	10033.203125	0.001544
0.021273	2.060418	10054.687500	0.000639
0.021318	1.956777	10076.171875	0.000531
0.021364	1.811678	10097.656250	0.001383
0.021409	1.790950	10119.140625	0.001428
0.021455	1.770222	10140.625000	0.001796
0.021500	1.708036	10162.109375	0.001019
0.021545	1.687308	10183.593750	0.000646
0.021591	1.625123	10205.078125	0.000662
0.021636	1.542211	10226.562500	0.000946
0.021682	1.459297	10248.046875	0.000907
0.021727	1.355656	10269.531250	0.001068
0.021773	1.293470	10291.015625	0.000645
0.021818	1.231285	10312.500000	0.000382
0.021864	1.189829	10333.984375	0.000322
0.021909	1.044730	10355.468750	0.000613
0.021955	1.024002	10376.953125	0.000827
0.022000	0.982546	10398.437500	0.000530
0.022045	0.941089	10419.921875	0.000442
0.022091	0.899632	10441.406250	0.000333
0.022136	0.858175	10462.890625	0.000910
0.022182	0.816719	10484.375000	0.001034
0.022227	0.754534	10505.859375	0.000837
0.022273	0.692349	10527.343750	0.000729
0.022318	0.650892	10548.828125	0.001025
0.022364	0.567979	10570.312500	0.001118
0.022409	0.526523	10591.796875	0.000450
0.022455	0.402153	10613.281250	0.000694
0.022500	0.402153	10634.765625	0.000439
0.022545	0.402153	10656.250000	0.001123
0.022591	0.360696	10677.734375	0.000374
0.022636	0.298512	10699.218750	0.000860
0.022682	0.257054	10720.703125	0.000276
0.022727	0.215598	10742.187500	0.000906
0.022773	0.194870	10763.671875	0.000685
0.022818	0.194870	10785.156250	0.000782
0.022864	0.132685	10806.640625	0.000805
0.022909	0.132685	10828.125000	0.000576
0.022955	0.111957	10849.609375	0.001149
0.023000	0.049771	10871.093750	0.000831
0.023045	0.049771	10892.578125	0.000459
0.023091	0.029043	10914.062500	0.000915
0.023136	0.029043	10935.546875	0.000857
0.023182	0.049771	10957.031250	0.000877
0.023227	0.049771	10978.515625	0.000495
0.023273	0.049771	NaN	NaN
0.023318	0.049771	NaN	NaN
0.023364	0.049771	NaN	NaN
0.023409	0.049771	NaN	NaN
0.023455	0.049771	NaN	NaN
0.023500	0.029043	NaN	NaN
0.023545	0.049771	NaN	NaN
0.023591	0.049771	NaN	NaN
0.023636	0.049771	NaN	NaN
0.023682	0.049771	NaN	NaN
0.023727	0.049771	NaN	NaN
0.023773	0.049771	NaN	NaN
0.023818	0.029043	NaN	NaN
0.023864	0.049771	NaN	NaN
0.023909	0.029043	NaN	NaN
0.023955	0.029043	NaN	NaN
0.024000	0.049771	NaN	NaN
0.024045	0.049771	NaN	NaN
0.024091	0.049771	NaN	NaN
0.024136	0.029043	NaN	NaN
0.024182	0.029043	NaN	NaN
0.024227	0.049771	NaN	NaN
0.024273	0.215598	NaN	NaN
0.024318	0.215598	NaN	NaN
0.024364	0.236326	NaN	NaN
0.024409	0.236326	NaN	NaN
0.024455	0.277782	NaN	NaN
0.024500	0.360696	NaN	NaN
0.024545	0.443609	NaN	NaN
0.024591	0.339968	NaN	NaN
0.024636	0.319240	NaN	NaN
0.024682	0.319240	NaN	NaN
0.024727	0.319240	NaN	NaN
0.024773	0.526523	NaN	NaN
0.024818	0.630164	NaN	NaN
0.024864	0.547251	NaN	NaN
0.024909	0.733806	NaN	NaN
0.024955	0.878904	NaN	NaN
0.025000	0.795991	NaN	NaN
0.025045	0.982546	NaN	NaN
0.025091	1.044730	NaN	NaN
0.025136	1.003274	NaN	NaN
0.025182	1.044730	NaN	NaN
0.025227	1.127644	NaN	NaN
0.025273	1.169101	NaN	NaN
0.025318	1.127644	NaN	NaN
0.025364	1.189829	NaN	NaN
0.025409	1.334927	NaN	NaN
0.025455	1.355656	NaN	NaN
0.025500	1.417840	NaN	NaN
0.025545	1.625123	NaN	NaN
0.025591	1.666580	NaN	NaN
0.025636	1.687308	NaN	NaN
0.025682	1.770222	NaN	NaN
0.025727	1.770222	NaN	NaN
0.025773	1.811678	NaN	NaN
0.025818	2.060418	NaN	NaN
0.025864	2.205517	NaN	NaN
0.025909	2.184788	NaN	NaN
0.025955	2.184788	NaN	NaN
0.026000	2.350615	NaN	NaN
0.026045	2.371343	NaN	NaN
0.026091	2.412800	NaN	NaN
0.026136	2.557898	NaN	NaN
0.026182	2.661539	NaN	NaN
0.026227	2.806638	NaN	NaN
0.026273	2.765181	NaN	NaN
0.026318	2.889551	NaN	NaN
0.026364	3.076106	NaN	NaN
0.026409	3.013921	NaN	NaN
0.026455	3.200476	NaN	NaN
0.026500	3.345573	NaN	NaN
0.026545	3.283389	NaN	NaN
0.026591	3.449216	NaN	NaN
0.026636	3.573586	NaN	NaN
0.026682	3.490672	NaN	NaN
0.026727	3.656499	NaN	NaN
0.026773	3.718683	NaN	NaN
0.026818	3.760140	NaN	NaN
0.026864	3.884510	NaN	NaN
0.026909	3.988152	NaN	NaN
0.026955	4.091793	NaN	NaN
0.027000	4.153978	NaN	NaN
0.027045	4.216164	NaN	NaN
0.027091	4.299076	NaN	NaN
0.027136	4.361261	NaN	NaN
0.027182	4.381989	NaN	NaN
0.027227	4.423447	NaN	NaN
0.027273	4.464903	NaN	NaN
0.027318	4.464903	NaN	NaN
0.027364	4.464903	NaN	NaN
0.027409	4.527088	NaN	NaN
0.027455	4.610002	NaN	NaN
0.027500	4.672186	NaN	NaN
0.027545	4.713643	NaN	NaN
0.027591	4.755099	NaN	NaN
0.027636	4.817285	NaN	NaN
0.027682	4.858741	NaN	NaN
0.027727	4.879470	NaN	NaN
0.027773	4.920926	NaN	NaN
0.027818	4.962382	NaN	NaN
0.027864	4.941654	NaN	NaN
0.027909	4.879470	NaN	NaN
0.027955	4.879470	NaN	NaN
0.028000	4.920926	NaN	NaN
0.028045	4.941654	NaN	NaN
0.028091	4.941654	NaN	NaN
0.028136	4.941654	NaN	NaN
0.028182	4.941654	NaN	NaN
0.028227	4.962382	NaN	NaN
0.028273	4.941654	NaN	NaN
0.028318	4.941654	NaN	NaN
0.028364	4.941654	NaN	NaN
0.028409	4.941654	NaN	NaN
0.028455	4.941654	NaN	NaN
0.028500	4.962382	NaN	NaN
0.028545	4.941654	NaN	NaN
0.028591	4.941654	NaN	NaN
0.028636	4.941654	NaN	NaN
0.028682	4.962382	NaN	NaN
0.028727	4.941654	NaN	NaN
0.028773	4.941654	NaN	NaN
0.028818	4.962382	NaN	NaN
0.028864	4.920926	NaN	NaN
0.028909	4.941654	NaN	NaN
0.028955	4.962382	NaN	NaN
0.029000	4.962382	NaN	NaN
0.029045	4.962382	NaN	NaN
0.029091	4.941654	NaN	NaN
0.029136	4.941654	NaN	NaN
0.029182	4.941654	NaN	NaN
0.029227	4.858741	NaN	NaN
0.029273	4.796556	NaN	NaN
0.029318	4.755099	NaN	NaN
0.029364	4.713643	NaN	NaN
0.029409	4.692915	NaN	NaN
0.029455	4.651458	NaN	NaN
0.029500	4.610002	NaN	NaN
0.029545	4.464903	NaN	NaN
0.029591	4.464903	NaN	NaN
0.029636	4.423447	NaN	NaN
0.029682	4.423447	NaN	NaN
0.029727	4.381989	NaN	NaN
0.029773	4.340533	NaN	NaN
0.029818	4.278348	NaN	NaN
0.029864	4.195435	NaN	NaN
0.029909	4.195435	NaN	NaN
0.029955	4.195435	NaN	NaN
0.030000	4.195435	NaN	NaN
0.030045	4.133250	NaN	NaN
0.030091	3.967423	NaN	NaN
0.030136	3.905238	NaN	NaN
0.030182	3.760140	NaN	NaN
0.030227	3.656499	NaN	NaN
0.030273	3.552857	NaN	NaN
0.030318	3.490672	NaN	NaN
0.030364	3.407759	NaN	NaN
0.030409	3.324845	NaN	NaN
0.030455	3.262661	NaN	NaN
0.030500	3.200476	NaN	NaN
0.030545	3.200476	NaN	NaN
0.030591	3.159019	NaN	NaN
0.030636	3.096834	NaN	NaN
0.030682	3.096834	NaN	NaN
0.030727	2.993193	NaN	NaN
0.030773	2.868822	NaN	NaN
0.030818	2.765181	NaN	NaN
0.030864	2.620083	NaN	NaN
0.030909	2.516441	NaN	NaN
0.030955	2.371343	NaN	NaN
0.031000	2.329886	NaN	NaN
0.031045	2.267701	NaN	NaN
0.031091	2.205517	NaN	NaN
0.031136	2.101874	NaN	NaN
0.031182	2.018962	NaN	NaN
0.031227	1.998233	NaN	NaN
0.031273	1.977505	NaN	NaN
0.031318	1.998233	NaN	NaN
0.031364	1.956777	NaN	NaN
0.031409	1.894591	NaN	NaN
0.031455	1.832407	NaN	NaN
0.031500	1.687308	NaN	NaN
0.031545	1.521482	NaN	NaN
0.031591	1.397112	NaN	NaN
0.031636	1.293470	NaN	NaN
0.031682	1.169101	NaN	NaN
0.031727	1.086187	NaN	NaN
0.031773	1.106915	NaN	NaN
0.031818	1.106915	NaN	NaN
0.031864	1.086187	NaN	NaN
0.031909	1.065459	NaN	NaN
0.031955	1.024002	NaN	NaN
0.032000	0.961818	NaN	NaN
0.032045	0.858175	NaN	NaN
0.032091	0.775263	NaN	NaN
0.032136	0.733806	NaN	NaN
0.032182	0.671621	NaN	NaN
0.032227	0.609436	NaN	NaN
0.032273	0.464337	NaN	NaN
0.032318	0.464337	NaN	NaN
0.032364	0.443609	NaN	NaN
0.032409	0.402153	NaN	NaN
0.032455	0.360696	NaN	NaN
0.032500	0.298512	NaN	NaN
0.032545	0.257054	NaN	NaN
0.032591	0.277782	NaN	NaN
0.032636	0.277782	NaN	NaN
0.032682	0.236326	NaN	NaN
0.032727	0.215598	NaN	NaN
0.032773	0.194870	NaN	NaN
0.032818	0.174141	NaN	NaN
0.032864	0.070499	NaN	NaN
0.032909	0.049771	NaN	NaN
0.032955	0.049771	NaN	NaN
0.033000	0.049771	NaN	NaN
0.033045	0.029043	NaN	NaN
0.033091	0.029043	NaN	NaN
0.033136	0.049771	NaN	NaN
0.033182	0.049771	NaN	NaN
0.033227	0.049771	NaN	NaN
0.033273	0.049771	NaN	NaN
0.033318	0.049771	NaN	NaN
0.033364	0.029043	NaN	NaN
0.033409	0.049771	NaN	NaN
0.033455	0.029043	NaN	NaN
0.033500	0.029043	NaN	NaN
0.033545	0.049771	NaN	NaN
0.033591	0.049771	NaN	NaN
0.033636	0.049771	NaN	NaN
0.033682	0.049771	NaN	NaN
0.033727	0.029043	NaN	NaN
0.033773	0.029043	NaN	NaN
0.033818	0.049771	NaN	NaN
0.033864	0.049771	NaN	NaN
0.033909	0.008315	NaN	NaN
0.033955	0.049771	NaN	NaN
0.034000	0.049771	NaN	NaN
0.034045	0.049771	NaN	NaN
0.034091	0.049771	NaN	NaN
0.034136	0.049771	NaN	NaN
0.034182	0.049771	NaN	NaN
0.034227	0.049771	NaN	NaN
0.034273	0.029043	NaN	NaN
0.034318	0.049771	NaN	NaN
0.034364	0.049771	NaN	NaN
0.034409	0.111957	NaN	NaN
0.034455	0.049771	NaN	NaN
0.034500	0.049771	NaN	NaN
0.034545	0.029043	NaN	NaN
0.034591	0.277782	NaN	NaN
0.034636	0.422881	NaN	NaN
0.034682	0.547251	NaN	NaN
0.034727	0.671621	NaN	NaN
0.034773	0.713078	NaN	NaN
0.034818	0.775263	NaN	NaN
0.034864	0.775263	NaN	NaN
0.034909	0.775263	NaN	NaN
0.034955	0.733806	NaN	NaN
0.035000	0.775263	NaN	NaN
0.035045	0.858175	NaN	NaN
0.035091	0.982546	NaN	NaN
0.035136	1.106915	NaN	NaN
0.035182	1.272742	NaN	NaN
0.035227	1.417840	NaN	NaN
0.035273	1.521482	NaN	NaN
0.035318	1.542211	NaN	NaN
0.035364	1.521482	NaN	NaN
0.035409	1.500753	NaN	NaN
0.035455	1.500753	NaN	NaN
0.035500	1.500753	NaN	NaN
0.035545	1.480025	NaN	NaN
0.035591	1.625123	NaN	NaN
0.035636	1.770222	NaN	NaN
0.035682	1.894591	NaN	NaN
0.035727	2.039690	NaN	NaN
0.035773	2.143332	NaN	NaN
0.035818	2.205517	NaN	NaN
0.035864	2.288429	NaN	NaN
0.035909	2.350615	NaN	NaN
0.035955	2.433528	NaN	NaN
0.036000	2.474984	NaN	NaN
0.036045	2.516441	NaN	NaN
0.036091	2.516441	NaN	NaN
0.036136	2.620083	NaN	NaN
0.036182	2.682268	NaN	NaN
0.036227	2.827366	NaN	NaN
0.036273	2.910279	NaN	NaN
0.036318	2.993193	NaN	NaN
0.036364	3.055377	NaN	NaN
0.036409	3.138290	NaN	NaN
0.036455	3.200476	NaN	NaN
0.036500	3.283389	NaN	NaN
0.036545	3.345573	NaN	NaN
0.036591	3.345573	NaN	NaN
0.036636	3.366302	NaN	NaN
0.036682	3.511400	NaN	NaN
0.036727	3.615042	NaN	NaN
0.036773	3.718683	NaN	NaN
0.036818	3.822325	NaN	NaN
0.036864	3.884510	NaN	NaN
0.036909	3.925967	NaN	NaN
0.036955	3.946695	NaN	NaN
0.037000	4.008880	NaN	NaN
0.037045	4.050337	NaN	NaN
0.037091	4.091793	NaN	NaN
0.037136	4.133250	NaN	NaN
0.037182	4.133250	NaN	NaN
0.037227	4.236892	NaN	NaN
0.037273	4.299076	NaN	NaN
0.037318	4.340533	NaN	NaN
0.037364	4.402719	NaN	NaN
0.037409	4.485631	NaN	NaN
0.037455	4.547816	NaN	NaN
0.037500	4.610002	NaN	NaN
0.037545	4.672186	NaN	NaN
0.037591	4.692915	NaN	NaN
0.037636	4.734371	NaN	NaN
0.037682	4.692915	NaN	NaN
0.037727	4.672186	NaN	NaN
0.037773	4.713643	NaN	NaN
0.037818	4.755099	NaN	NaN
0.037864	4.796556	NaN	NaN
0.037909	4.838013	NaN	NaN
0.037955	4.879470	NaN	NaN
0.038000	4.900198	NaN	NaN
0.038045	4.900198	NaN	NaN
0.038091	4.941654	NaN	NaN
0.038136	4.941654	NaN	NaN
0.038182	4.941654	NaN	NaN
0.038227	4.941654	NaN	NaN
0.038273	4.941654	NaN	NaN
0.038318	4.941654	NaN	NaN
0.038364	4.941654	NaN	NaN
0.038409	4.962382	NaN	NaN
0.038455	4.962382	NaN	NaN
0.038500	4.941654	NaN	NaN
0.038545	4.941654	NaN	NaN
0.038591	4.941654	NaN	NaN
0.038636	4.941654	NaN	NaN
0.038682	4.941654	NaN	NaN
0.038727	4.941654	NaN	NaN
0.038773	4.941654	NaN	NaN
0.038818	4.941654	NaN	NaN
0.038864	4.941654	NaN	NaN
0.038909	4.962382	NaN	NaN
0.038955	4.941654	NaN	NaN
0.039000	4.941654	NaN	NaN
0.039045	4.941654	NaN	NaN
0.039091	4.858741	NaN	NaN
0.039136	4.838013	NaN	NaN
0.039182	4.775827	NaN	NaN
0.039227	4.755099	NaN	NaN
0.039273	4.692915	NaN	NaN
0.039318	4.630730	NaN	NaN
0.039364	4.527088	NaN	NaN
0.039409	4.527088	NaN	NaN
0.039455	4.506360	NaN	NaN
0.039500	4.361261	NaN	NaN
0.039545	4.278348	NaN	NaN
0.039591	4.236892	NaN	NaN
0.039636	4.299076	NaN	NaN
0.039682	4.402719	NaN	NaN
0.039727	4.506360	NaN	NaN
0.039773	4.527088	NaN	NaN
0.039818	4.485631	NaN	NaN
0.039864	4.340533	NaN	NaN
0.039909	4.091793	NaN	NaN
0.039955	3.884510	NaN	NaN
0.040000	3.760140	NaN	NaN
0.040045	3.677227	NaN	NaN
0.040091	3.677227	NaN	NaN
0.040136	3.677227	NaN	NaN
0.040182	3.718683	NaN	NaN
0.040227	3.739412	NaN	NaN
0.040273	3.739412	NaN	NaN
0.040318	3.677227	NaN	NaN
0.040364	3.552857	NaN	NaN
0.040409	3.345573	NaN	NaN
0.040455	3.200476	NaN	NaN
0.040500	3.159019	NaN	NaN
0.040545	3.138290	NaN	NaN
0.040591	3.117562	NaN	NaN
0.040636	3.013921	NaN	NaN
0.040682	2.951735	NaN	NaN
0.040727	2.951735	NaN	NaN
0.040773	2.868822	NaN	NaN
0.040818	2.806638	NaN	NaN
0.040864	2.682268	NaN	NaN
0.040909	2.620083	NaN	NaN
0.040955	2.599355	NaN	NaN
0.041000	2.557898	NaN	NaN
0.041045	2.599355	NaN	NaN
0.041091	2.537169	NaN	NaN
0.041136	2.454256	NaN	NaN
0.041182	2.329886	NaN	NaN
0.041227	2.184788	NaN	NaN
0.041273	2.039690	NaN	NaN
0.041318	1.894591	NaN	NaN
0.041364	1.832407	NaN	NaN
0.041409	1.770222	NaN	NaN
0.041455	1.770222	NaN	NaN
0.041500	1.770222	NaN	NaN
0.041545	1.666580	NaN	NaN
0.041591	1.625123	NaN	NaN
0.041636	1.562939	NaN	NaN
0.041682	1.500753	NaN	NaN
0.041727	1.376384	NaN	NaN
0.041773	1.355656	NaN	NaN
0.041818	1.252014	NaN	NaN
0.041864	1.189829	NaN	NaN
0.041909	1.106915	NaN	NaN
0.041955	1.065459	NaN	NaN
0.042000	1.024002	NaN	NaN
0.042045	0.961818	NaN	NaN
0.042091	0.941089	NaN	NaN
0.042136	0.920361	NaN	NaN
0.042182	0.858175	NaN	NaN
0.042227	0.775263	NaN	NaN
0.042273	0.692349	NaN	NaN
0.042318	0.609436	NaN	NaN
0.042364	0.526523	NaN	NaN
0.042409	0.443609	NaN	NaN
0.042455	0.443609	NaN	NaN
0.042500	0.443609	NaN	NaN
0.042545	0.443609	NaN	NaN
0.042591	0.381424	NaN	NaN
0.042636	0.132685	NaN	NaN
0.042682	0.029043	NaN	NaN
0.042727	0.070499	NaN	NaN
0.042773	0.049771	NaN	NaN
0.042818	0.049771	NaN	NaN
0.042864	0.049771	NaN	NaN
0.042909	0.049771	NaN	NaN
0.042955	0.049771	NaN	NaN
0.043000	0.049771	NaN	NaN
0.043045	0.049771	NaN	NaN
0.043091	0.049771	NaN	NaN
0.043136	0.029043	NaN	NaN
0.043182	0.049771	NaN	NaN
0.043227	0.049771	NaN	NaN
0.043273	0.049771	NaN	NaN
0.043318	0.049771	NaN	NaN
0.043364	0.029043	NaN	NaN
0.043409	0.049771	NaN	NaN
0.043455	0.049771	NaN	NaN
0.043500	0.049771	NaN	NaN
0.043545	0.049771	NaN	NaN
0.043591	0.049771	NaN	NaN
0.043636	0.049771	NaN	NaN
0.043682	0.029043	NaN	NaN
0.043727	0.029043	NaN	NaN
0.043773	0.070499	NaN	NaN
0.043818	0.049771	NaN	NaN
0.043864	0.049771	NaN	NaN
0.043909	0.049771	NaN	NaN
0.043955	0.029043	NaN	NaN
0.044000	0.049771	NaN	NaN
0.044045	0.049771	NaN	NaN
0.044091	0.049771	NaN	NaN
0.044136	0.049771	NaN	NaN
0.044182	0.049771	NaN	NaN
0.044227	0.049771	NaN	NaN
0.044273	0.029043	NaN	NaN
0.044318	0.049771	NaN	NaN
0.044364	0.029043	NaN	NaN
0.044409	0.049771	NaN	NaN
0.044455	0.402153	NaN	NaN
0.044500	0.526523	NaN	NaN
0.044545	0.464337	NaN	NaN
0.044591	0.339968	NaN	NaN
0.044636	0.360696	NaN	NaN
0.044682	0.277782	NaN	NaN
0.044727	0.298512	NaN	NaN
0.044773	0.443609	NaN	NaN
0.044818	0.526523	NaN	NaN
0.044864	0.713078	NaN	NaN
0.044909	0.878904	NaN	NaN
0.044955	1.044730	NaN	NaN
0.045000	1.106915	NaN	NaN
0.045045	1.127644	NaN	NaN
0.045091	1.148372	NaN	NaN
0.045136	1.169101	NaN	NaN
0.045182	1.189829	NaN	NaN
0.045227	1.252014	NaN	NaN
0.045273	1.314198	NaN	NaN
0.045318	1.293470	NaN	NaN
0.045364	1.334927	NaN	NaN
0.045409	1.521482	NaN	NaN
0.045455	1.645852	NaN	NaN
0.045500	1.749494	NaN	NaN
0.045545	1.853135	NaN	NaN
0.045591	1.936049	NaN	NaN
0.045636	1.977505	NaN	NaN
0.045682	2.018962	NaN	NaN
0.045727	2.060418	NaN	NaN
0.045773	2.122603	NaN	NaN
0.045818	2.184788	NaN	NaN
0.045864	2.267701	NaN	NaN
0.045909	2.267701	NaN	NaN
0.045955	2.392071	NaN	NaN
0.046000	2.474984	NaN	NaN
0.046045	2.537169	NaN	NaN
0.046091	2.661539	NaN	NaN
0.046136	2.744452	NaN	NaN
0.046182	2.848094	NaN	NaN
0.046227	2.931007	NaN	NaN
0.046273	3.013921	NaN	NaN
0.046318	3.076106	NaN	NaN
0.046364	3.138290	NaN	NaN
0.046409	3.200476	NaN	NaN
0.046455	3.159019	NaN	NaN
0.046500	3.262661	NaN	NaN
