Number of Samples	Sampling Rate (Hz)
1024.000000	22000.000000

Time (s)	Time History Channel 0	Frequency (Hz)	Power Spectrum Channel 0
0.000000	2.723724	0.000000	2.494336
0.000045	3.511400	21.484375	0.023946
0.000091	4.174706	42.968750	0.042731
0.000136	4.734371	64.453125	0.027864
0.000182	4.941654	85.937500	0.020589
0.000227	4.941654	107.421875	0.038300
0.000273	4.962382	128.906250	0.017416
0.000318	4.941654	150.390625	0.025265
0.000364	4.941654	171.875000	0.051142
0.000409	3.988152	193.359375	0.023922
0.000455	3.159019	214.843750	0.010095
0.000500	2.350615	236.328125	0.038673
0.000545	1.562939	257.812500	0.040432
0.000591	0.899632	279.296875	0.018440
0.000636	0.298512	300.781250	0.028034
0.000682	0.049771	322.265625	0.035217
0.000727	0.049771	343.750000	0.024963
0.000773	0.029043	365.234375	0.029621
0.000818	0.049771	386.718750	0.040911
0.000864	0.049771	408.203125	0.031623
0.000909	1.210557	429.687500	0.028448
0.000955	1.832407	451.171875	0.037413
0.001000	2.640811	472.656250	0.036001
0.001045	3.407759	494.140625	0.032590
0.001091	4.153978	515.625000	0.034304
0.001136	4.713643	537.109375	0.039639
0.001182	4.962382	558.593750	0.037335
0.001227	4.941654	580.078125	0.040633
0.001273	4.941654	601.562500	0.038831
0.001318	4.941654	623.046875	0.043547
0.001364	4.941654	644.531250	0.048049
0.001409	3.801597	666.015625	0.043903
0.001455	3.013921	687.500000	0.053970
0.001500	2.246973	708.984375	0.053796
0.001545	1.521482	730.468750	0.059678
0.001591	0.858175	751.953125	0.059447
0.001636	0.319240	773.437500	0.062459
0.001682	0.049771	794.921875	0.070375
0.001727	0.049771	816.406250	0.084136
0.001773	0.049771	837.890625	0.087839
0.001818	0.049771	859.375000	0.099841
0.001864	0.049771	880.859375	0.116973
0.001909	1.106915	902.343750	0.144946
0.001955	1.790950	923.828125	0.178898
0.002000	2.620083	945.312500	0.255483
0.002045	3.366302	966.796875	0.412806
0.002091	4.071065	988.281250	1.253352
0.002136	4.651458	1009.765625	1.183211
0.002182	4.962382	1031.250000	0.388904
0.002227	4.941654	1052.734375	0.241731
0.002273	4.941654	1074.218750	0.161765
0.002318	4.941654	1095.703125	0.123320
0.002364	4.941654	1117.187500	0.106284
0.002409	3.905238	1138.671875	0.087191
0.002455	3.076106	1160.156250	0.073745
0.002500	2.309158	1181.640625	0.067707
0.002545	1.542211	1203.125000	0.062034
0.002591	0.858175	1224.609375	0.048397
0.002636	0.319240	1246.093750	0.046000
0.002682	0.049771	1267.578125	0.046332
0.002727	0.049771	1289.062500	0.035798
0.002773	0.049771	1310.546875	0.036370
0.002818	0.029043	1332.031250	0.038904
0.002864	0.049771	1353.515625	0.027375
0.002909	1.127644	1375.000000	0.024900
0.002955	1.790950	1396.484375	0.029994
0.003000	2.578626	1417.968750	0.030320
0.003045	3.345573	1439.453125	0.024092
0.003091	4.071065	1460.937500	0.018139
0.003136	4.713643	1482.421875	0.022231
0.003182	4.941654	1503.906250	0.030387
0.003227	4.941654	1525.390625	0.017873
0.003273	4.941654	1546.875000	0.014883
0.003318	4.941654	1568.359375	0.022063
0.003364	4.941654	1589.843750	0.018354
0.003409	3.760140	1611.328125	0.007145
0.003455	2.993193	1632.812500	0.019670
0.003500	2.246973	1654.296875	0.019012
0.003545	1.542211	1675.781250	0.004034
0.003591	0.920361	1697.265625	0.017144
0.003636	0.402153	1718.750000	0.021099
0.003682	0.049771	1740.234375	0.015618
0.003727	0.029043	1761.718750	0.003027
0.003773	0.049771	1783.203125	0.015983
0.003818	0.049771	1804.687500	0.011652
0.003864	0.049771	1826.171875	0.013946
0.003909	1.024002	1847.656250	0.014890
0.003955	1.687308	1869.140625	0.012901
0.004000	2.495713	1890.625000	0.003154
0.004045	3.324845	1912.109375	0.017618
0.004091	4.050337	1933.593750	0.006338
0.004136	4.651458	1955.078125	0.009115
0.004182	4.962382	1976.562500	0.013204
0.004227	4.941654	1998.046875	0.016842
0.004273	4.941654	2019.531250	0.009040
0.004318	4.941654	2041.015625	0.006614
0.004364	4.941654	2062.500000	0.006937
0.004409	4.029609	2083.984375	0.013322
0.004455	3.200476	2105.468750	0.018577
0.004500	2.433528	2126.953125	0.008843
0.004545	1.687308	2148.437500	0.005497
0.004591	0.961818	2169.921875	0.010062
0.004636	0.381424	2191.406250	0.008447
0.004682	0.049771	2212.890625	0.016638
0.004727	0.029043	2234.375000	0.006785
0.004773	0.049771	2255.859375	0.002998
0.004818	0.029043	2277.343750	0.003607
0.004864	0.049771	2298.828125	0.002632
0.004909	1.065459	2320.312500	0.011017
0.004955	1.749494	2341.796875	0.006237
0.005000	2.537169	2363.281250	0.009353
0.005045	3.345573	2384.765625	0.004711
0.005091	4.050337	2406.250000	0.002206
0.005136	4.630730	2427.734375	0.004350
0.005182	4.941654	2449.218750	0.002452
0.005227	4.941654	2470.703125	0.003095
0.005273	4.941654	2492.187500	0.000768
0.005318	4.941654	2513.671875	0.004320
0.005364	4.941654	2535.156250	0.005310
0.005409	4.008880	2556.640625	0.006338
0.005455	3.221204	2578.125000	0.001075
0.005500	2.454256	2599.609375	0.003752
0.005545	1.666580	2621.093750	0.005572
0.005591	0.961818	2642.578125	0.002386
0.005636	0.381424	2664.062500	0.002843
0.005682	0.049771	2685.546875	0.004434
0.005727	0.029043	2707.031250	0.003588
0.005773	0.049771	2728.515625	0.001570
0.005818	0.029043	2750.000000	0.003813
0.005864	0.049771	2771.484375	0.001383
0.005909	1.065459	2792.968750	0.001543
0.005955	1.728765	2814.453125	0.005480
0.006000	2.516441	2835.937500	0.003998
0.006045	3.324845	2857.421875	0.003349
0.006091	4.029609	2878.906250	0.001256
0.006136	4.610002	2900.390625	0.006466
0.006182	4.941654	2921.875000	0.006975
0.006227	4.962382	2943.359375	0.017756
0.006273	4.941654	2964.843750	0.019596
0.006318	4.941654	2986.328125	0.086571
0.006364	4.941654	3007.812500	0.085211
0.006409	4.133250	3029.296875	0.021575
0.006455	3.345573	3050.781250	0.020165
0.006500	2.537169	3072.265625	0.007021
0.006545	1.728765	3093.750000	0.011467
0.006591	0.982546	3115.234375	0.010680
0.006636	0.360696	3136.718750	0.009681
0.006682	0.049771	3158.203125	0.011766
0.006727	0.029043	3179.687500	0.012557
0.006773	0.049771	3201.171875	0.007291
0.006818	0.049771	3222.656250	0.004782
0.006864	0.049771	3244.140625	0.007476
0.006909	1.044730	3265.625000	0.006503
0.006955	1.728765	3287.109375	0.004875
0.007000	2.537169	3308.593750	0.008792
0.007045	3.304117	3330.078125	0.007653
0.007091	4.029609	3351.562500	0.003459
0.007136	4.610002	3373.046875	0.003058
0.007182	4.941654	3394.531250	0.006352
0.007227	4.941654	3416.015625	0.007599
0.007273	4.941654	3437.500000	0.006907
0.007318	4.941654	3458.984375	0.003749
0.007364	4.962382	3480.468750	0.005670
0.007409	4.879470	3501.953125	0.008156
0.007455	3.345573	3523.437500	0.003756
0.007500	2.433528	3544.921875	0.004214
0.007545	1.521482	3566.406250	0.005399
0.007591	0.733806	3587.890625	0.006461
0.007636	0.194870	3609.375000	0.003846
0.007682	0.049771	3630.859375	0.005521
0.007727	0.029043	3652.343750	0.005720
0.007773	0.029043	3673.828125	0.009458
0.007818	0.049771	3695.312500	0.005258
0.007864	0.049771	3716.796875	0.003968
0.007909	1.127644	3738.281250	0.012532
0.007955	1.749494	3759.765625	0.002405
0.008000	2.495713	3781.250000	0.003866
0.008045	3.241932	3802.734375	0.007425
0.008091	3.925967	3824.218750	0.017427
0.008136	4.506360	3845.703125	0.006607
0.008182	4.941654	3867.187500	0.006983
0.008227	4.962382	3888.671875	0.005866
0.008273	4.962382	3910.156250	0.004458
0.008318	4.941654	3931.640625	0.007107
0.008364	4.941654	3953.125000	0.012793
0.008409	4.444175	3974.609375	0.008115
0.008455	3.407759	3996.093750	0.004626
0.008500	2.412800	4017.578125	0.004018
0.008545	1.542211	4039.062500	0.010855
0.008591	0.671621	4060.546875	0.003552
0.008636	0.111957	4082.031250	0.007344
0.008682	0.049771	4103.515625	0.008256
0.008727	0.029043	4125.000000	0.007488
0.008773	0.029043	4146.484375	0.002690
0.008818	0.049771	4167.968750	0.005871
0.008864	0.029043	4189.453125	0.003895
0.008909	0.713078	4210.937500	0.001272
0.008955	1.645852	4232.421875	0.006489
0.009000	2.371343	4253.906250	0.006954
0.009045	3.159019	4275.390625	0.002131
0.009091	3.780869	4296.875000	0.001749
0.009136	4.423447	4318.359375	0.003149
0.009182	4.817285	4339.843750	0.003675
0.009227	4.920926	4361.328125	0.008158
0.009273	4.941654	4382.812500	0.005951
0.009318	4.920926	4404.296875	0.001498
0.009364	4.672186	4425.781250	0.001921
0.009409	3.884510	4447.265625	0.003126
0.009455	3.200476	4468.750000	0.001393
0.009500	2.392071	4490.234375	0.000951
0.009545	1.645852	4511.718750	0.001294
0.009591	0.920361	4533.203125	0.005913
0.009636	0.277782	4554.687500	0.006019
0.009682	0.049771	4576.171875	0.001854
0.009727	0.029043	4597.656250	0.000628
0.009773	0.049771	4619.140625	0.003155
0.009818	0.049771	4640.625000	0.005972
0.009864	0.029043	4662.109375	0.003551
0.009909	0.070499	4683.593750	0.004603
0.009955	1.625123	4705.078125	0.002247
0.010000	2.433528	4726.562500	0.005278
0.010045	3.241932	4748.046875	0.006215
0.010091	3.988152	4769.531250	0.002147
0.010136	4.568544	4791.015625	0.006343
0.010182	4.962382	4812.500000	0.010649
0.010227	4.941654	4833.984375	0.004304
0.010273	4.941654	4855.468750	0.005562
0.010318	4.941654	4876.953125	0.006854
0.010364	4.941654	4898.437500	0.007476
0.010409	4.340533	4919.921875	0.011348
0.010455	3.304117	4941.406250	0.020723
0.010500	2.557898	4962.890625	0.017472
0.010545	1.790950	4984.375000	0.062710
0.010591	1.044730	5005.859375	0.052771
0.010636	0.443609	5027.343750	0.011731
0.010682	0.049771	5048.828125	0.015156
0.010727	0.029043	5070.312500	0.006288
0.010773	0.049771	5091.796875	0.005294
0.010818	0.049771	5113.281250	0.008055
0.010864	0.049771	5134.765625	0.002406
0.010909	0.920361	5156.250000	0.004913
0.010955	1.666580	5177.734375	0.003934
0.011000	2.350615	5199.218750	0.005675
0.011045	3.159019	5220.703125	0.002435
0.011091	3.905238	5242.187500	0.000622
0.011136	4.527088	5263.671875	0.003144
0.011182	4.941654	5285.156250	0.001917
0.011227	4.962382	5306.640625	0.003990
0.011273	4.941654	5328.125000	0.001519
0.011318	4.941654	5349.609375	0.002764
0.011364	4.941654	5371.093750	0.001525
0.011409	4.112521	5392.578125	0.003584
0.011455	3.387031	5414.062500	0.003736
0.011500	2.578626	5435.546875	0.003272
0.011545	1.790950	5457.031250	0.003303
0.011591	1.106915	5478.515625	0.002915
0.011636	0.505795	5500.000000	0.006453
0.011682	0.070499	5521.484375	0.000022
0.011727	0.029043	5542.968750	0.003788
0.011773	0.029043	5564.453125	0.001971
0.011818	0.049771	5585.937500	0.001858
0.011864	0.049771	5607.421875	0.003857
0.011909	0.733806	5628.906250	0.002948
0.011955	1.604395	5650.390625	0.003505
0.012000	2.392071	5671.875000	0.003898
0.012045	3.117562	5693.359375	0.003200
0.012091	3.843054	5714.843750	0.001896
0.012136	4.506360	5736.328125	0.006106
0.012182	4.941654	5757.812500	0.003646
0.012227	4.962382	5779.296875	0.002290
0.012273	4.962382	5800.781250	0.003043
0.012318	4.941654	5822.265625	0.007655
0.012364	4.941654	5843.750000	0.001321
0.012409	4.464903	5865.234375	0.004054
0.012455	3.387031	5886.718750	0.003622
0.012500	2.599355	5908.203125	0.006456
0.012545	1.811678	5929.687500	0.004968
0.012591	1.024002	5951.171875	0.003378
0.012636	0.360696	5972.656250	0.003223
0.012682	0.070499	5994.140625	0.005399
0.012727	0.049771	6015.625000	0.001503
0.012773	0.049771	6037.109375	0.004744
0.012818	0.029043	6058.593750	0.003051
0.012864	0.049771	6080.078125	0.006854
0.012909	0.692349	6101.562500	0.007075
0.012955	1.625123	6123.046875	0.003991
0.013000	2.412800	6144.531250	0.002063
0.013045	3.179748	6166.015625	0.003798
0.013091	3.925967	6187.500000	0.006001
0.013136	4.423447	6208.984375	0.001469
0.013182	4.692915	6230.468750	0.002241
0.013227	4.858741	6251.953125	0.003913
0.013273	4.941654	6273.437500	0.002685
0.013318	4.817285	6294.921875	0.002241
0.013364	4.527088	6316.406250	0.003701
0.013409	3.863782	6337.890625	0.002541
0.013455	3.241932	6359.375000	0.004907
0.013500	2.495713	6380.859375	0.001885
0.013545	1.542211	6402.343750	0.001498
0.013591	0.899632	6423.828125	0.001160
0.013636	0.381424	6445.312500	0.001026
0.013682	0.049771	6466.796875	0.001420
0.013727	0.029043	6488.281250	0.001864
0.013773	0.049771	6509.765625	0.002484
0.013818	0.049771	6531.250000	0.003379
0.013864	0.049771	6552.734375	0.001569
0.013909	0.070499	6574.218750	0.002082
0.013955	1.334927	6595.703125	0.002489
0.014000	1.998233	6617.187500	0.002342
0.014045	2.868822	6638.671875	0.002827
0.014091	3.532128	6660.156250	0.001876
0.014136	4.112521	6681.640625	0.001565
0.014182	4.630730	6703.125000	0.000329
0.014227	4.879470	6724.609375	0.002752
0.014273	4.941654	6746.093750	0.002499
0.014318	4.941654	6767.578125	0.002051
0.014364	4.610002	6789.062500	0.002623
0.014409	4.153978	6810.546875	0.006186
0.014455	3.304117	6832.031250	0.000965
0.014500	2.557898	6853.515625	0.001572
0.014545	1.687308	6875.000000	0.000887
0.014591	0.858175	6896.484375	0.003458
0.014636	0.236326	6917.968750	0.005772
0.014682	0.049771	6939.453125	0.010620
0.014727	0.029043	6960.937500	0.006950
0.014773	0.029043	6982.421875	0.024935
0.014818	0.049771	7003.906250	0.021571
0.014864	0.049771	7025.390625	0.011674
0.014909	0.049771	7046.875000	0.005206
0.014955	1.583667	7068.359375	0.008221
0.015000	2.226245	7089.843750	0.004615
0.015045	3.138290	7111.328125	0.006061
0.015091	3.843054	7132.812500	0.001111
0.015136	4.361261	7154.296875	0.002567
0.015182	4.879470	7175.781250	0.001111
0.015227	4.962382	7197.265625	0.004086
0.015273	4.962382	7218.750000	0.001183
0.015318	4.941654	7240.234375	0.001014
0.015364	4.941654	7261.718750	0.002623
0.015409	4.174706	7283.203125	0.001446
0.015455	3.511400	7304.687500	0.002355
0.015500	2.765181	7326.171875	0.000671
0.015545	1.977505	7347.656250	0.001539
0.015591	1.231285	7369.140625	0.002209
0.015636	0.588708	7390.625000	0.004221
0.015682	0.111957	7412.109375	0.003254
0.015727	0.049771	7433.593750	0.003140
0.015773	0.049771	7455.078125	0.002939
0.015818	0.049771	7476.562500	0.004488
0.015864	0.049771	7498.046875	0.006087
0.015909	0.858175	7519.531250	0.001767
0.015955	1.583667	7541.015625	0.000930
0.016000	2.392071	7562.500000	0.001649
0.016045	3.200476	7583.984375	0.002244
0.016091	3.946695	7605.468750	0.000966
0.016136	4.527088	7626.953125	0.001207
0.016182	4.941654	7648.437500	0.004136
0.016227	4.941654	7669.921875	0.004930
0.016273	4.941654	7691.406250	0.001391
0.016318	4.941654	7712.890625	0.001369
0.016364	4.941654	7734.375000	0.004794
0.016409	4.941654	7755.859375	0.003640
0.016455	3.532128	7777.343750	0.003485
0.016500	2.765181	7798.828125	0.004391
0.016545	1.998233	7820.312500	0.006476
0.016591	1.231285	7841.796875	0.002533
0.016636	0.567979	7863.281250	0.004299
0.016682	0.111957	7884.765625	0.003225
0.016727	0.029043	7906.250000	0.006111
0.016773	0.049771	7927.734375	0.006203
0.016818	0.049771	7949.218750	0.004690
0.016864	0.029043	7970.703125	0.004749
0.016909	0.982546	7992.187500	0.006199
0.016955	1.645852	8013.671875	0.004840
0.017000	2.371343	8035.156250	0.005363
0.017045	3.159019	8056.640625	0.002992
0.017091	3.905238	8078.125000	0.005014
0.017136	4.485631	8099.609375	0.005415
0.017182	4.879470	8121.093750	0.006032
0.017227	4.962382	8142.578125	0.002281
0.017273	4.941654	8164.062500	0.001716
0.017318	4.941654	8185.546875	0.006771
0.017364	4.962382	8207.031250	0.002847
0.017409	4.941654	8228.515625	0.001393
0.017455	3.615042	8250.000000	0.004866
0.017500	2.785910	8271.484375	0.005104
0.017545	1.956777	8292.968750	0.000778
0.017591	1.231285	8314.453125	0.001031
0.017636	0.609436	8335.937500	0.004539
0.017682	0.111957	8357.421875	0.004131
0.017727	0.049771	8378.906250	0.001814
0.017773	0.049771	8400.390625	0.001551
0.017818	0.029043	8421.875000	0.001864
0.017864	0.029043	8443.359375	0.000755
0.017909	0.837447	8464.843750	0.000633
0.017955	1.542211	8486.328125	0.000544
0.018000	2.267701	8507.812500	0.004747
0.018045	2.993193	8529.296875	0.004017
0.018091	3.656499	8550.781250	0.001069
0.018136	4.299076	8572.265625	0.002831
0.018182	4.838013	8593.750000	0.002083
0.018227	4.962382	8615.234375	0.002128
0.018273	4.941654	8636.718750	0.001596
0.018318	4.941654	8658.203125	0.001231
0.018364	4.941654	8679.687500	0.002089
0.018409	4.941654	8701.171875	0.002755
0.018455	3.594314	8722.656250	0.001207
0.018500	2.827366	8744.140625	0.002851
0.018545	2.018962	8765.625000	0.001556
0.018591	1.231285	8787.109375	0.002192
0.018636	0.547251	8808.593750	0.004298
0.018682	0.111957	8830.078125	0.002621
0.018727	0.049771	8851.562500	0.000723
0.018773	0.029043	8873.046875	0.000214
0.018818	0.049771	8894.531250	0.004968
0.018864	0.029043	8916.015625	0.004029
0.018909	0.733806	8937.500000	0.008590
0.018955	1.521482	8958.984375	0.006845
0.019000	2.309158	8980.468750	0.026074
0.019045	3.096834	9001.953125	0.024684
0.019091	3.822325	9023.437500	0.013457
0.019136	4.381989	9044.921875	0.006377
0.019182	4.879470	9066.406250	0.006730
0.019227	4.962382	9087.890625	0.005665
0.019273	4.962382	9109.375000	0.005069
0.019318	4.962382	9130.859375	0.001172
0.019364	4.962382	9152.343750	0.002216
0.019409	4.941654	9173.828125	0.002160
0.019455	3.449216	9195.312500	0.004637
0.019500	2.661539	9216.796875	0.002127
0.019545	1.936049	9238.281250	0.000431
0.019591	1.231285	9259.765625	0.003693
0.019636	0.630164	9281.250000	0.001095
0.019682	0.111957	9302.734375	0.003728
0.019727	0.049771	9324.218750	0.002568
0.019773	0.029043	9345.703125	0.000604
0.019818	0.049771	9367.187500	0.001041
0.019864	0.049771	9388.671875	0.004363
0.019909	0.650892	9410.156250	0.003825
0.019955	1.417840	9431.640625	0.001409
0.020000	2.184788	9453.125000	0.000958
0.020045	3.013921	9474.609375	0.003981
0.020091	3.760140	9496.093750	0.003999
0.020136	4.423447	9517.578125	0.001607
0.020182	4.920926	9539.062500	0.000590
0.020227	4.941654	9560.546875	0.001617
0.020273	4.962382	9582.031250	0.001951
0.020318	4.941654	9603.515625	0.000563
0.020364	4.962382	9625.000000	0.000414
0.020409	4.920926	9646.484375	0.003570
0.020455	3.573586	9667.968750	0.004604
0.020500	2.827366	9689.453125	0.002905
0.020545	2.018962	9710.937500	0.000323
0.020591	1.252014	9732.421875	0.005014
0.020636	0.588708	9753.906250	0.003799
0.020682	0.070499	9775.390625	0.002106
0.020727	0.029043	9796.875000	0.004082
0.020773	0.049771	9818.359375	0.007615
0.020818	0.049771	9839.843750	0.001193
0.020864	0.029043	9861.328125	0.003224
0.020909	0.049771	9882.812500	0.003564
0.020955	1.459297	9904.296875	0.006381
0.021000	2.246973	9925.781250	0.005252
0.021045	3.076106	9947.265625	0.002883
0.021091	3.801597	9968.750000	0.005343
0.021136	4.423447	9990.234375	0.004020
0.021182	4.900198	10011.718750	0.002396
0.021227	4.941654	10033.203125	0.004127
0.021273	4.941654	10054.687500	0.002421
0.021318	4.941654	10076.171875	0.007141
0.021364	4.941654	10097.656250	0.004958
0.021409	4.216164	10119.140625	0.003369
0.021455	3.449216	10140.625000	0.004554
0.021500	2.682268	10162.109375	0.001987
0.021545	1.956777	10183.593750	0.007387
0.021591	1.272742	10205.078125	0.003291
0.021636	0.671621	10226.562500	0.001527
0.021682	0.194870	10248.046875	0.003444
0.021727	0.049771	10269.531250	0.003971
0.021773	0.049771	10291.015625	0.000874
0.021818	0.049771	10312.500000	0.002437
0.021864	0.029043	10333.984375	0.004762
0.021909	0.049771	10355.468750	0.002200
0.021955	1.314198	10376.953125	0.000880
0.022000	2.101874	10398.437500	0.001097
0.022045	2.972465	10419.921875	0.001326
0.022091	3.760140	10441.406250	0.002198
0.022136	4.444175	10462.890625	0.001227
0.022182	4.962382	10484.375000	0.001119
0.022227	4.941654	10505.859375	0.003492
0.022273	4.941654	10527.343750	0.003444
0.022318	4.941654	10548.828125	0.001049
0.022364	4.941654	10570.312500	0.003649
0.022409	4.900198	10591.796875	0.003158
0.022455	3.449216	10613.281250	0.003136
0.022500	2.682268	10634.765625	0.001098
0.022545	1.977505	10656.250000	0.000847
0.022591	1.272742	10677.734375	0.001300
0.022636	0.671621	10699.218750	0.003060
0.022682	0.153413	10720.703125	0.001703
0.022727	0.029043	10742.187500	0.004023
0.022773	0.049771	10763.671875	0.002784
0.022818	0.049771	10785.156250	0.001478
0.022864	0.029043	10806.640625	0.005483
0.022909	0.049771	10828.125000	0.001001
0.022955	1.376384	10849.609375	0.001706
0.023000	2.081146	10871.093750	0.001783
0.023045	2.931007	10892.578125	0.005217
0.023091	3.760140	10914.062500	0.004604
0.023136	4.464903	10935.546875	0.009339
0.023182	4.941654	10957.031250	0.005966
0.023227	4.941654	10978.515625	0.016691
0.023273	4.941654	NaN	NaN
0.023318	4.941654	NaN	NaN
0.023364	4.941654	NaN	NaN
0.023409	4.920926	NaN	NaN
0.023455	3.552857	NaN	NaN
0.023500	2.785910	NaN	NaN
0.023545	1.936049	NaN	NaN
0.023591	1.231285	NaN	NaN
0.023636	0.630164	NaN	NaN
0.023682	0.153413	NaN	NaN
0.023727	0.070499	NaN	NaN
0.023773	0.049771	NaN	NaN
0.023818	0.049771	NaN	NaN
0.023864	0.029043	NaN	NaN
0.023909	0.049771	NaN	NaN
0.023955	1.334927	NaN	NaN
0.024000	2.101874	NaN	NaN
0.024045	2.910279	NaN	NaN
0.024091	3.594314	NaN	NaN
0.024136	4.257620	NaN	NaN
0.024182	4.817285	NaN	NaN
0.024227	4.941654	NaN	NaN
0.024273	4.941654	NaN	NaN
0.024318	4.941654	NaN	NaN
0.024364	4.941654	NaN	NaN
0.024409	4.962382	NaN	NaN
0.024455	3.760140	NaN	NaN
0.024500	2.972465	NaN	NaN
0.024545	2.164060	NaN	NaN
0.024591	1.293470	NaN	NaN
0.024636	0.588708	NaN	NaN
0.024682	0.091228	NaN	NaN
0.024727	0.049771	NaN	NaN
0.024773	0.049771	NaN	NaN
0.024818	0.049771	NaN	NaN
0.024864	0.029043	NaN	NaN
0.024909	0.049771	NaN	NaN
0.024955	1.438569	NaN	NaN
0.025000	2.184788	NaN	NaN
0.025045	2.972465	NaN	NaN
0.025091	3.760140	NaN	NaN
0.025136	4.444175	NaN	NaN
0.025182	4.838013	NaN	NaN
0.025227	4.941654	NaN	NaN
0.025273	4.941654	NaN	NaN
0.025318	4.962382	NaN	NaN
0.025364	4.941654	NaN	NaN
0.025409	4.775827	NaN	NaN
0.025455	3.511400	NaN	NaN
0.025500	2.806638	NaN	NaN
0.025545	2.060418	NaN	NaN
0.025591	1.376384	NaN	NaN
0.025636	0.775263	NaN	NaN
0.025682	0.298512	NaN	NaN
0.025727	0.049771	NaN	NaN
0.025773	0.049771	NaN	NaN
0.025818	0.049771	NaN	NaN
0.025864	0.049771	NaN	NaN
0.025909	0.049771	NaN	NaN
0.025955	1.355656	NaN	NaN
0.026000	2.081146	NaN	NaN
0.026045	2.910279	NaN	NaN
0.026091	3.677227	NaN	NaN
0.026136	4.319805	NaN	NaN
0.026182	4.817285	NaN	NaN
0.026227	4.962382	NaN	NaN
0.026273	4.962382	NaN	NaN
0.026318	4.941654	NaN	NaN
0.026364	4.920926	NaN	NaN
0.026409	4.941654	NaN	NaN
0.026455	3.656499	NaN	NaN
0.026500	2.868822	NaN	NaN
0.026545	2.060418	NaN	NaN
0.026591	1.293470	NaN	NaN
0.026636	0.609436	NaN	NaN
0.026682	0.091228	NaN	NaN
0.026727	0.008315	NaN	NaN
0.026773	0.029043	NaN	NaN
0.026818	0.049771	NaN	NaN
0.026864	0.049771	NaN	NaN
0.026909	0.049771	NaN	NaN
0.026955	1.355656	NaN	NaN
0.027000	2.060418	NaN	NaN
0.027045	2.827366	NaN	NaN
0.027091	3.552857	NaN	NaN
0.027136	4.195435	NaN	NaN
0.027182	4.734371	NaN	NaN
0.027227	4.941654	NaN	NaN
0.027273	4.941654	NaN	NaN
0.027318	4.941654	NaN	NaN
0.027364	4.941654	NaN	NaN
0.027409	4.941654	NaN	NaN
0.027455	3.718683	NaN	NaN
0.027500	2.910279	NaN	NaN
0.027545	2.039690	NaN	NaN
0.027591	1.210557	NaN	NaN
0.027636	0.547251	NaN	NaN
0.027682	0.111957	NaN	NaN
0.027727	0.049771	NaN	NaN
0.027773	0.049771	NaN	NaN
0.027818	0.049771	NaN	NaN
0.027864	0.049771	NaN	NaN
0.027909	0.526523	NaN	NaN
0.027955	1.314198	NaN	NaN
0.028000	2.018962	NaN	NaN
0.028045	2.744452	NaN	NaN
0.028091	3.490672	NaN	NaN
0.028136	4.153978	NaN	NaN
0.028182	4.692915	NaN	NaN
0.028227	4.941654	NaN	NaN
0.028273	4.941654	NaN	NaN
0.028318	4.962382	NaN	NaN
0.028364	4.962382	NaN	NaN
0.028409	4.941654	NaN	NaN
0.028455	3.635771	NaN	NaN
0.028500	2.931007	NaN	NaN
0.028545	2.164060	NaN	NaN
0.028591	1.355656	NaN	NaN
0.028636	0.671621	NaN	NaN
0.028682	0.132685	NaN	NaN
0.028727	0.049771	NaN	NaN
0.028773	0.049771	NaN	NaN
0.028818	0.029043	NaN	NaN
0.028864	0.029043	NaN	NaN
0.028909	0.049771	NaN	NaN
0.028955	1.417840	NaN	NaN
0.029000	2.101874	NaN	NaN
0.029045	2.848094	NaN	NaN
0.029091	3.573586	NaN	NaN
0.029136	4.195435	NaN	NaN
0.029182	4.692915	NaN	NaN
0.029227	4.941654	NaN	NaN
0.029273	4.941654	NaN	NaN
0.029318	4.941654	NaN	NaN
0.029364	4.962382	NaN	NaN
0.029409	4.651458	NaN	NaN
0.029455	3.760140	NaN	NaN
0.029500	3.013921	NaN	NaN
0.029545	2.164060	NaN	NaN
0.029591	1.397112	NaN	NaN
0.029636	0.630164	NaN	NaN
0.029682	0.091228	NaN	NaN
0.029727	0.049771	NaN	NaN
0.029773	0.049771	NaN	NaN
0.029818	0.049771	NaN	NaN
0.029864	0.029043	NaN	NaN
0.029909	0.029043	NaN	NaN
0.029955	1.355656	NaN	NaN
0.030000	2.060418	NaN	NaN
0.030045	2.785910	NaN	NaN
0.030091	3.366302	NaN	NaN
0.030136	4.029609	NaN	NaN
0.030182	4.589272	NaN	NaN
0.030227	4.941654	NaN	NaN
0.030273	4.941654	NaN	NaN
0.030318	4.941654	NaN	NaN
0.030364	4.962382	NaN	NaN
0.030409	4.920926	NaN	NaN
0.030455	3.760140	NaN	NaN
0.030500	2.993193	NaN	NaN
0.030545	2.184788	NaN	NaN
0.030591	1.355656	NaN	NaN
0.030636	0.567979	NaN	NaN
0.030682	0.091228	NaN	NaN
0.030727	0.049771	NaN	NaN
0.030773	0.029043	NaN	NaN
0.030818	0.029043	NaN	NaN
0.030864	0.049771	NaN	NaN
0.030909	0.132685	NaN	NaN
0.030955	1.314198	NaN	NaN
0.031000	2.081146	NaN	NaN
0.031045	2.931007	NaN	NaN
0.031091	3.697955	NaN	NaN
0.031136	4.299076	NaN	NaN
0.031182	4.568544	NaN	NaN
0.031227	4.879470	NaN	NaN
0.031273	4.941654	NaN	NaN
0.031318	4.879470	NaN	NaN
0.031364	4.672186	NaN	NaN
0.031409	4.257620	NaN	NaN
0.031455	3.511400	NaN	NaN
0.031500	2.889551	NaN	NaN
0.031545	2.184788	NaN	NaN
0.031591	1.355656	NaN	NaN
0.031636	0.775263	NaN	NaN
0.031682	0.194870	NaN	NaN
0.031727	0.029043	NaN	NaN
0.031773	0.029043	NaN	NaN
0.031818	0.029043	NaN	NaN
0.031864	0.029043	NaN	NaN
0.031909	0.049771	NaN	NaN
0.031955	0.858175	NaN	NaN
0.032000	1.770222	NaN	NaN
0.032045	2.537169	NaN	NaN
0.032091	3.262661	NaN	NaN
0.032136	4.008880	NaN	NaN
0.032182	4.527088	NaN	NaN
0.032227	4.796556	NaN	NaN
0.032273	4.900198	NaN	NaN
0.032318	4.900198	NaN	NaN
0.032364	4.610002	NaN	NaN
0.032409	4.299076	NaN	NaN
0.032455	3.718683	NaN	NaN
0.032500	2.889551	NaN	NaN
0.032545	2.018962	NaN	NaN
0.032591	1.293470	NaN	NaN
0.032636	0.567979	NaN	NaN
0.032682	0.049771	NaN	NaN
0.032727	0.049771	NaN	NaN
0.032773	0.029043	NaN	NaN
0.032818	0.029043	NaN	NaN
0.032864	0.049771	NaN	NaN
0.032909	0.029043	NaN	NaN
0.032955	1.314198	NaN	NaN
0.033000	1.749494	NaN	NaN
0.033045	2.640811	NaN	NaN
0.033091	3.469944	NaN	NaN
0.033136	4.008880	NaN	NaN
0.033182	4.692915	NaN	NaN
0.033227	4.941654	NaN	NaN
0.033273	4.941654	NaN	NaN
0.033318	4.962382	NaN	NaN
0.033364	4.962382	NaN	NaN
0.033409	4.941654	NaN	NaN
0.033455	3.988152	NaN	NaN
0.033500	3.159019	NaN	NaN
0.033545	2.329886	NaN	NaN
0.033591	1.542211	NaN	NaN
0.033636	0.816719	NaN	NaN
0.033682	0.257054	NaN	NaN
0.033727	0.070499	NaN	NaN
0.033773	0.049771	NaN	NaN
0.033818	0.029043	NaN	NaN
0.033864	0.049771	NaN	NaN
0.033909	0.029043	NaN	NaN
0.033955	1.210557	NaN	NaN
0.034000	1.998233	NaN	NaN
0.034045	2.931007	NaN	NaN
0.034091	3.801597	NaN	NaN
0.034136	4.527088	NaN	NaN
0.034182	4.941654	NaN	NaN
0.034227	4.941654	NaN	NaN
0.034273	4.962382	NaN	NaN
0.034318	4.941654	NaN	NaN
0.034364	4.941654	NaN	NaN
0.034409	4.941654	NaN	NaN
0.034455	3.760140	NaN	NaN
0.034500	3.076106	NaN	NaN
0.034545	2.350615	NaN	NaN
0.034591	1.645852	NaN	NaN
0.034636	0.982546	NaN	NaN
0.034682	0.422881	NaN	NaN
0.034727	0.049771	NaN	NaN
0.034773	0.029043	NaN	NaN
0.034818	0.049771	NaN	NaN
0.034864	0.049771	NaN	NaN
0.034909	0.049771	NaN	NaN
0.034955	1.231285	NaN	NaN
0.035000	1.936049	NaN	NaN
0.035045	2.682268	NaN	NaN
0.035091	3.490672	NaN	NaN
0.035136	4.133250	NaN	NaN
0.035182	4.692915	NaN	NaN
0.035227	4.962382	NaN	NaN
0.035273	4.941654	NaN	NaN
0.035318	4.941654	NaN	NaN
0.035364	4.962382	NaN	NaN
0.035409	4.962382	NaN	NaN
0.035455	4.195435	NaN	NaN
0.035500	3.179748	NaN	NaN
0.035545	2.288429	NaN	NaN
0.035591	1.521482	NaN	NaN
0.035636	0.837447	NaN	NaN
0.035682	0.277782	NaN	NaN
0.035727	0.029043	NaN	NaN
0.035773	0.029043	NaN	NaN
0.035818	0.049771	NaN	NaN
0.035864	0.049771	NaN	NaN
0.035909	0.049771	NaN	NaN
0.035955	1.106915	NaN	NaN
0.036000	1.790950	NaN	NaN
0.036045	2.495713	NaN	NaN
0.036091	3.221204	NaN	NaN
0.036136	3.863782	NaN	NaN
0.036182	4.361261	NaN	NaN
0.036227	4.734371	NaN	NaN
0.036273	4.941654	NaN	NaN
0.036318	4.962382	NaN	NaN
0.036364	4.962382	NaN	NaN
0.036409	4.527088	NaN	NaN
0.036455	3.905238	NaN	NaN
0.036500	3.138290	NaN	NaN
0.036545	2.267701	NaN	NaN
0.036591	1.376384	NaN	NaN
0.036636	0.567979	NaN	NaN
0.036682	0.049771	NaN	NaN
0.036727	0.049771	NaN	NaN
0.036773	0.029043	NaN	NaN
0.036818	0.049771	NaN	NaN
0.036864	0.029043	NaN	NaN
0.036909	0.049771	NaN	NaN
0.036955	1.169101	NaN	NaN
0.037000	1.832407	NaN	NaN
0.037045	2.620083	NaN	NaN
0.037091	3.366302	NaN	NaN
0.037136	4.008880	NaN	NaN
0.037182	4.464903	NaN	NaN
0.037227	4.858741	NaN	NaN
0.037273	4.941654	NaN	NaN
0.037318	4.941654	NaN	NaN
0.037364	4.941654	NaN	NaN
0.037409	4.381989	NaN	NaN
0.037455	3.780869	NaN	NaN
0.037500	3.076106	NaN	NaN
0.037545	2.288429	NaN	NaN
0.037591	1.521482	NaN	NaN
0.037636	0.795991	NaN	NaN
0.037682	0.215598	NaN	NaN
0.037727	0.049771	NaN	NaN
0.037773	0.049771	NaN	NaN
0.037818	0.049771	NaN	NaN
0.037864	0.049771	NaN	NaN
0.037909	0.049771	NaN	NaN
0.037955	1.024002	NaN	NaN
0.038000	1.749494	NaN	NaN
0.038045	2.557898	NaN	NaN
0.038091	3.345573	NaN	NaN
0.038136	4.050337	NaN	NaN
0.038182	4.610002	NaN	NaN
0.038227	4.920926	NaN	NaN
0.038273	4.941654	NaN	NaN
0.038318	4.962382	NaN	NaN
0.038364	4.941654	NaN	NaN
0.038409	4.527088	NaN	NaN
0.038455	3.801597	NaN	NaN
0.038500	3.076106	NaN	NaN
0.038545	2.288429	NaN	NaN
0.038591	1.521482	NaN	NaN
0.038636	0.837447	NaN	NaN
0.038682	0.236326	NaN	NaN
0.038727	0.049771	NaN	NaN
0.038773	0.049771	NaN	NaN
0.038818	0.029043	NaN	NaN
0.038864	0.029043	NaN	NaN
0.038909	0.049771	NaN	NaN
0.038955	1.044730	NaN	NaN
0.039000	1.790950	NaN	NaN
0.039045	2.578626	NaN	NaN
0.039091	3.345573	NaN	NaN
0.039136	4.050337	NaN	NaN
0.039182	4.630730	NaN	NaN
0.039227	4.941654	NaN	NaN
0.039273	4.941654	NaN	NaN
0.039318	4.941654	NaN	NaN
0.039364	4.941654	NaN	NaN
0.039409	4.941654	NaN	NaN
0.039455	3.801597	NaN	NaN
0.039500	3.096834	NaN	NaN
0.039545	2.309158	NaN	NaN
0.039591	1.562939	NaN	NaN
0.039636	0.858175	NaN	NaN
0.039682	0.277782	NaN	NaN
0.039727	0.049771	NaN	NaN
0.039773	0.049771	NaN	NaN
0.039818	0.049771	NaN	NaN
0.039864	0.049771	NaN	NaN
0.039909	0.029043	NaN	NaN
0.039955	0.837447	NaN	NaN
0.040000	1.728765	NaN	NaN
0.040045	2.516441	NaN	NaN
0.040091	3.262661	NaN	NaN
0.040136	3.946695	NaN	NaN
0.040182	4.568544	NaN	NaN
0.040227	4.941654	NaN	NaN
0.040273	4.941654	NaN	NaN
0.040318	4.941654	NaN	NaN
0.040364	4.941654	NaN	NaN
0.040409	4.941654	NaN	NaN
0.040455	3.967423	NaN	NaN
0.040500	3.096834	NaN	NaN
0.040545	2.309158	NaN	NaN
0.040591	1.521482	NaN	NaN
0.040636	0.816719	NaN	NaN
0.040682	0.257054	NaN	NaN
0.040727	0.049771	NaN	NaN
0.040773	0.049771	NaN	NaN
0.040818	0.029043	NaN	NaN
0.040864	0.049771	NaN	NaN
0.040909	0.049771	NaN	NaN
0.040955	1.189829	NaN	NaN
0.041000	1.811678	NaN	NaN
0.041045	2.495713	NaN	NaN
0.041091	3.324845	NaN	NaN
0.041136	4.029609	NaN	NaN
0.041182	4.589272	NaN	NaN
0.041227	4.941654	NaN	NaN
0.041273	4.962382	NaN	NaN
0.041318	4.941654	NaN	NaN
0.041364	4.962382	NaN	NaN
0.041409	4.941654	NaN	NaN
0.041455	3.925967	NaN	NaN
0.041500	3.117562	NaN	NaN
0.041545	2.329886	NaN	NaN
0.041591	1.625123	NaN	NaN
0.041636	0.920361	NaN	NaN
0.041682	0.360696	NaN	NaN
0.041727	0.070499	NaN	NaN
0.041773	0.049771	NaN	NaN
0.041818	0.029043	NaN	NaN
0.041864	0.049771	NaN	NaN
0.041909	0.029043	NaN	NaN
0.041955	1.086187	NaN	NaN
0.042000	1.749494	NaN	NaN
0.042045	2.495713	NaN	NaN
0.042091	3.262661	NaN	NaN
0.042136	3.988152	NaN	NaN
0.042182	4.568544	NaN	NaN
0.042227	4.941654	NaN	NaN
0.042273	4.941654	NaN	NaN
0.042318	4.941654	NaN	NaN
0.042364	4.920926	NaN	NaN
0.042409	4.941654	NaN	NaN
0.042455	3.988152	NaN	NaN
0.042500	3.221204	NaN	NaN
0.042545	2.433528	NaN	NaN
0.042591	1.625123	NaN	NaN
0.042636	0.837447	NaN	NaN
0.042682	0.298512	NaN	NaN
0.042727	0.049771	NaN	NaN
0.042773	0.029043	NaN	NaN
0.042818	0.029043	NaN	NaN
0.042864	0.008315	NaN	NaN
0.042909	0.049771	NaN	NaN
0.042955	1.086187	NaN	NaN
0.043000	1.728765	NaN	NaN
0.043045	2.537169	NaN	NaN
0.043091	3.324845	NaN	NaN
0.043136	3.967423	NaN	NaN
0.043182	4.547816	NaN	NaN
0.043227	4.941654	NaN	NaN
0.043273	4.941654	NaN	NaN
0.043318	4.941654	NaN	NaN
0.043364	4.941654	NaN	NaN
0.043409	4.941654	NaN	NaN
0.043455	3.988152	NaN	NaN
0.043500	3.241932	NaN	NaN
0.043545	2.474984	NaN	NaN
0.043591	1.708036	NaN	NaN
0.043636	0.982546	NaN	NaN
0.043682	0.360696	NaN	NaN
0.043727	0.049771	NaN	NaN
0.043773	0.049771	NaN	NaN
0.043818	0.049771	NaN	NaN
0.043864	0.049771	NaN	NaN
0.043909	0.049771	NaN	NaN
0.043955	1.024002	NaN	NaN
0.044000	1.708036	NaN	NaN
0.044045	2.516441	NaN	NaN
0.044091	3.304117	NaN	NaN
0.044136	4.008880	NaN	NaN
0.044182	4.589272	NaN	NaN
0.044227	4.941654	NaN	NaN
0.044273	4.941654	NaN	NaN
0.044318	4.941654	NaN	NaN
0.044364	4.941654	NaN	NaN
0.044409	4.941654	NaN	NaN
0.044455	3.988152	NaN	NaN
0.044500	3.262661	NaN	NaN
0.044545	2.495713	NaN	NaN
0.044591	1.708036	NaN	NaN
0.044636	1.003274	NaN	NaN
0.044682	0.381424	NaN	NaN
0.044727	0.049771	NaN	NaN
0.044773	0.049771	NaN	NaN
0.044818	0.049771	NaN	NaN
0.044864	0.049771	NaN	NaN
0.044909	0.029043	NaN	NaN
0.044955	0.837447	NaN	NaN
0.045000	1.687308	NaN	NaN
0.045045	2.495713	NaN	NaN
0.045091	3.324845	NaN	NaN
0.045136	4.029609	NaN	NaN
0.045182	4.610002	NaN	NaN
0.045227	4.941654	NaN	NaN
0.045273	4.941654	NaN	NaN
0.045318	4.962382	NaN	NaN
0.045364	4.941654	NaN	NaN
0.045409	4.941654	NaN	NaN
0.045455	3.946695	NaN	NaN
0.045500	3.241932	NaN	NaN
0.045545	2.495713	NaN	NaN
0.045591	1.708036	NaN	NaN
0.045636	1.003274	NaN	NaN
0.045682	0.402153	NaN	NaN
0.045727	0.049771	NaN	NaN
0.045773	0.049771	NaN	NaN
0.045818	0.029043	NaN	NaN
0.045864	0.029043	NaN	NaN
0.045909	0.049771	NaN	NaN
0.045955	0.567979	NaN	NaN
0.046000	1.645852	NaN	NaN
0.046045	2.454256	NaN	NaN
0.046091	3.262661	NaN	NaN
0.046136	3.967423	NaN	NaN
0.046182	4.527088	NaN	NaN
0.046227	4.920926	NaN	NaN
0.046273	4.941654	NaN	NaN
0.046318	4.941654	NaN	NaN
0.046364	4.962382	NaN	NaN
0.046409	4.941654	NaN	NaN
0.046455	4.071065	NaN	NaN
0.046500	3.283389	NaN	NaN
